Data from Subt8__0__15-37-03-459.txt Node

Date: Mon Oct 05 15:37:03 EDT 2020
User: Jared
Spectrometer: USB4A00814
Scans to average: 5
Trigger mode: 4
Integration Time (sec): 3.000000E-1
Electric dark correction enabled: true
Boxcar width: 2
XAxis mode: Wavelengths
Number of Pixels in Spectrum: 3648
>>>>>Begin Spectral Data<<<<<
198.396	35.43
198.5	17.82
198.604	12.49
198.708	7.74
198.812	-2.25
198.916	-9.95
199.02	-3.4
199.125	-4.87
199.229	-9.05
199.333	-14.29
199.437	-14.38
199.541	-10.28
199.645	-0.37
199.749	3.48
199.853	14.87
199.957	10.53
200.061	9.63
200.165	3.24
200.269	0.78
200.373	-2.42
200.477	5.04
200.581	-3.15
200.685	7.5
200.789	-1.19
200.893	-2.17
200.996	-3.24
201.1	4.3
201.204	-3.07
201.308	-0.12
201.412	0.61
201.516	0.61
201.62	-7.74
201.724	-16.59
201.828	-6.02
201.932	-11.92
202.035	-15.28
202.139	0.12
202.243	4.79
202.347	3.81
202.451	12
202.555	18.47
202.659	22.49
202.762	22.81
202.866	26.01
202.97	22.81
203.074	18.8
203.178	5.53
203.281	4.46
203.385	-4.46
203.489	-1.35
203.593	0.53
203.697	6.27
203.8	10.94
203.904	18.64
204.008	28.22
204.112	26.91
204.215	16.92
204.319	11.35
204.423	3.15
204.527	-15.28
204.63	-10.53
204.734	-0.37
204.838	-2.25
204.941	6.18
205.045	22.16
205.149	17.74
205.252	6.68
205.356	11.76
205.46	16.42
205.563	8.64
205.667	8.4
205.771	11.67
205.874	15.36
205.978	8.64
206.082	7.58
206.185	7.66
206.289	16.02
206.392	12.08
206.496	15.93
206.6	13.89
206.703	15.28
206.807	6.92
206.91	11.26
207.014	7.5
207.117	4.38
207.221	6.35
207.324	14.21
207.428	9.87
207.531	7
207.635	15.61
207.739	13.07
207.842	6.02
207.946	7.99
208.049	12.9
208.153	-2.99
208.256	-2.25
208.359	6.43
208.463	10.12
208.566	1.6
208.67	10.12
208.773	14.29
208.877	16.02
208.98	12.25
209.084	18.88
209.187	30.35
209.29	19.54
209.394	2.58
209.497	4.87
209.601	11.84
209.704	3.07
209.807	7.41
209.911	9.95
210.014	8.07
210.118	-6.18
210.221	-1.02
210.324	-1.27
210.428	9.13
210.531	10.2
210.634	10.44
210.738	1.93
210.841	0.78
210.944	-11.51
211.048	-18.47
211.151	-18.55
211.254	-22.98
211.357	-20.19
211.461	-6.1
211.564	0.2
211.667	7.17
211.77	22.16
211.874	22.57
211.977	21.5
212.08	14.7
212.183	20.19
212.287	15.52
212.39	15.28
212.493	9.63
212.596	15.03
212.7	1.11
212.803	0.2
212.906	-1.68
213.009	1.27
213.112	4.3
213.215	14.13
213.319	3.4
213.422	3.07
213.525	8.48
213.628	7
213.731	4.22
213.834	8.23
213.937	6.59
214.041	-4.3
214.144	-10.61
214.247	-8.64
214.35	6.18
214.453	-2.25
214.556	-2.99
214.659	-2.17
214.762	-15.11
214.865	-28.38
214.968	-10.2
215.071	-5.2
215.174	-1.93
215.277	7.82
215.38	18.72
215.483	12.82
215.586	10.77
215.689	11.43
215.792	17.57
215.895	21.59
215.998	25.93
216.101	25.85
216.204	26.58
216.307	21.5
216.41	16.1
216.513	8.89
216.616	7.99
216.719	4.38
216.822	6.1
216.925	-1.19
217.028	-1.6
217.131	-6.35
217.234	-0.45
217.337	1.84
217.44	-2.42
217.542	-6.68
217.645	9.87
217.748	5.78
217.851	-5.94
217.954	0.78
218.057	7.41
218.16	-6.84
218.263	-4.46
218.365	6.35
218.468	11.92
218.571	16.42
218.674	16.02
218.777	17
218.879	17.82
218.982	10.04
219.085	-6.84
219.188	-8.89
219.291	-19.05
219.393	-31.17
219.496	-38.95
219.599	-21.09
219.702	-12.66
219.804	-9.38
219.907	9.05
220.01	18.47
220.113	11.59
220.215	9.63
220.318	13.64
220.421	7.5
220.523	7.91
220.626	16.26
220.729	19.54
220.831	23.96
220.934	15.93
221.037	24.29
221.139	15.03
221.242	21.01
221.345	9.3
221.447	9.38
221.55	4.05
221.653	5.86
221.755	-3.81
221.858	6.27
221.96	7.5
222.063	4.55
222.166	5.2
222.268	2.5
222.371	0.53
222.473	5.45
222.576	8.48
222.679	11.26
222.781	14.87
222.884	20.6
222.986	18.23
223.089	13.72
223.191	1.35
223.294	-0.53
223.396	-1.76
223.499	-4.46
223.601	-5.37
223.704	3.24
223.806	3.07
223.909	-7.17
224.011	-2.5
224.114	-3.73
224.216	-9.13
224.319	-7.09
224.421	-10.44
224.523	-11.1
224.626	-3.48
224.728	-7.17
224.831	-8.89
224.933	-3.4
225.036	-10.36
225.138	-15.77
225.24	-4.05
225.343	8.81
225.445	15.2
225.547	21.01
225.65	15.77
225.752	20.93
225.855	6.84
225.957	-2.83
226.059	2.83
226.162	7
226.264	-1.68
226.366	1.19
226.469	2.74
226.571	3.07
226.673	4.55
226.775	5.12
226.878	3.4
226.98	3.56
227.082	4.79
227.185	2.42
227.287	-7.33
227.389	-10.12
227.491	-8.23
227.594	-13.07
227.696	-9.13
227.798	5.2
227.9	16.67
228.002	18.96
228.105	12.57
228.207	9.87
228.309	-1.43
228.411	-3.48
228.513	0.12
228.616	-0.04
228.718	9.95
228.82	19.29
228.922	21.59
229.024	19.62
229.126	23.72
229.228	24.7
229.331	25.85
229.433	17.33
229.535	14.05
229.637	15.52
229.739	8.4
229.841	2.01
229.943	-0.37
230.045	-97.2
230.147	-96.71
230.249	-104.41
230.352	-104.32
230.454	-60.01
230.556	35.1
230.658	22.9
230.76	27.48
230.862	26.66
230.964	-14.29
231.066	-6.43
231.168	-1.76
231.27	-6.18
231.372	0.45
231.474	-1.84
231.576	-4.46
231.678	3.73
231.78	2.83
231.882	-2.83
231.984	-0.37
232.086	1.93
232.187	-5.78
232.289	6.27
232.391	18.64
232.493	10.53
232.595	10.04
232.697	9.63
232.799	6.1
232.901	1.76
233.003	3.15
233.105	-2.91
233.207	-3.97
233.308	-12.33
233.41	-17.65
233.512	-8.64
233.614	-14.29
233.716	-13.31
233.818	-5.94
233.919	-8.48
234.021	-10.44
234.123	-6.51
234.225	-4.71
234.327	-10.44
234.428	-12
234.53	-13.56
234.632	-9.71
234.734	-2.25
234.836	-5.61
234.937	-3.15
235.039	3.65
235.141	2.5
235.243	-1.6
235.344	7.66
235.446	14.38
235.548	3.4
235.649	-0.94
235.751	-4.38
235.853	0.86
235.955	-4.05
236.056	-0.45
236.158	3.15
236.26	4.79
236.361	0.53
236.463	-1.52
236.565	-0.37
236.666	1.93
236.768	5.61
236.87	-2.5
236.971	-2.5
237.073	-4.79
237.174	-0.45
237.276	-6.1
237.378	5.94
237.479	14.05
237.581	13.8
237.682	10.44
237.784	8.23
237.885	-2.25
237.987	-9.22
238.089	-7.17
238.19	-4.14
238.292	-1.76
238.393	0.7
238.495	7.58
238.596	5.12
238.698	0.78
238.799	3.48
238.901	7.66
239.002	1.35
239.104	-2.58
239.205	-12.49
239.307	-13.23
239.408	-15.69
239.51	-19.21
239.611	-1.6
239.713	4.38
239.814	14.13
239.915	17
240.017	23.72
240.118	1.84
240.22	-2.33
240.321	-8.23
240.422	-7.74
240.524	-9.95
240.625	-2.66
240.727	10.44
240.828	7.58
240.929	3.65
241.031	3.15
241.132	13.39
241.233	7.5
241.335	10.69
241.436	-0.53
241.537	-5.45
241.639	-2.33
241.74	1.19
241.841	-2.91
241.943	17
242.044	25.93
242.145	17.41
242.246	14.7
242.348	13.64
242.449	7.74
242.55	5.37
242.652	7.82
242.753	6.02
242.854	10.94
242.955	9.87
243.056	4.87
243.158	-3.65
243.259	-2.74
243.36	-11.1
243.461	-11.43
243.562	-4.71
243.664	-6.43
243.765	-15.52
243.866	-18.31
243.967	-19.05
244.068	-27.81
244.169	-20.6
244.271	-12.57
244.372	-4.05
244.473	-6.92
244.574	2.74
244.675	6.76
244.776	19.95
244.877	32.56
244.978	39.28
245.08	39.53
245.181	35.92
245.282	28.88
245.383	21.83
245.484	9.79
245.585	7.66
245.686	9.22
245.787	6.18
245.888	-1.6
245.989	9.38
246.09	4.38
246.191	0.37
246.292	-1.35
246.393	-8.4
246.494	-9.38
246.595	-2.42
246.696	-0.45
246.797	4.87
246.898	11.76
246.999	3.48
247.1	-1.43
247.201	-4.3
247.302	-9.95
247.403	-7
247.504	-3.24
247.605	-0.94
247.705	0.45
247.806	5.45
247.907	9.87
248.008	8.31
248.109	10.36
248.21	10.44
248.311	-0.12
248.412	-4.71
248.513	-2.09
248.613	-11.02
248.714	-15.61
248.815	-12.9
248.916	-12.49
249.017	-17.98
249.118	-2.91
249.218	0.04
249.319	5.28
249.42	9.54
249.521	14.79
249.622	0.45
249.722	-5.61
249.823	-0.04
249.924	-10.36
250.025	-8.31
250.125	-6.43
250.226	6.76
250.327	-1.19
250.428	3.15
250.528	-0.04
250.629	5.86
250.73	2.01
250.83	11.59
250.931	16.18
251.032	24.53
251.133	25.27
251.233	21.5
251.334	8.72
251.435	3.24
251.535	-1.76
251.636	-6.27
251.736	-7.25
251.837	-11.18
251.938	-9.13
252.038	-13.56
252.139	-17.08
252.24	-5.37
252.34	4.96
252.441	12.49
252.541	16.92
252.642	15.93
252.743	1.27
252.843	0.86
252.944	-9.05
253.044	-9.46
253.145	-6.84
253.245	1.93
253.346	1.93
253.446	4.87
253.547	15.28
253.647	16.75
253.748	18.15
253.848	26.09
253.949	38.13
254.049	32.15
254.15	28.71
254.25	18.64
254.351	-0.45
254.451	-7.58
254.552	-8.48
254.652	-6.43
254.753	6.27
254.853	15.69
254.954	19.95
255.054	22.16
255.154	22.16
255.255	9.79
255.355	3.15
255.456	-5.28
255.556	-11.76
255.656	-7.82
255.757	3.73
255.857	10.12
255.957	6.1
256.058	11.67
256.158	8.81
256.258	6.18
256.359	8.72
256.459	10.44
256.559	6.43
256.66	4.79
256.76	-5.78
256.86	-7.66
256.961	-4.14
257.061	-6.68
257.161	-12.98
257.261	-5.86
257.362	-1.27
257.462	-3.4
257.562	10.28
257.662	17.49
257.763	24.94
257.863	13.8
257.963	9.3
258.063	-2.33
258.164	2.25
258.264	-7.5
258.364	0.86
258.464	3.73
258.564	1.76
258.665	1.43
258.765	0.2
258.865	5.69
258.965	2.33
259.065	1.93
259.165	-0.37
259.265	9.54
259.366	4.38
259.466	6.43
259.566	6.76
259.666	6.92
259.766	4.3
259.866	-0.2
259.966	1.35
260.066	10.61
260.166	8.72
260.266	4.14
260.366	6.27
260.467	4.14
260.567	-3.81
260.667	4.55
260.767	2.99
260.867	3.4
260.967	5.28
261.067	4.22
261.167	-3.81
261.267	1.52
261.367	-6.18
261.467	1.52
261.567	7.17
261.667	18.8
261.767	11.59
261.867	26.75
261.967	14.79
262.066	12.49
262.166	0.86
262.266	-2.58
262.366	-8.64
262.466	-2.09
262.566	-5.94
262.666	4.22
262.766	19.54
262.866	11.59
262.966	11.35
263.066	17.41
263.165	0.94
263.265	0.12
263.365	-2.58
263.465	5.28
263.565	7.66
263.665	16.34
263.764	14.7
263.864	24.37
263.964	15.36
264.064	7.66
264.164	10.77
264.263	11.02
264.363	10.2
264.463	15.36
264.563	20.44
264.663	17.16
264.762	9.22
264.862	13.07
264.962	2.33
265.062	-10.53
265.161	-2.25
265.261	-2.74
265.361	-10.77
265.46	-5.86
265.56	2.25
265.66	-10.36
265.76	-11.67
265.859	-0.04
265.959	-2.99
266.059	5.37
266.158	2.17
266.258	23.47
266.358	21.75
266.457	26.5
266.557	22.57
266.657	35.27
266.756	22.08
266.856	19.37
266.955	14.29
267.055	11.26
267.155	-2.01
267.254	-5.37
267.354	-9.38
267.453	-8.4
267.553	-2.33
267.652	4.79
267.752	7.66
267.852	5.2
267.951	9.63
268.051	3.81
268.15	8.72
268.25	17.24
268.349	18.15
268.449	14.87
268.548	20.68
268.648	16.67
268.747	3.73
268.847	1.84
268.946	7.17
269.046	1.19
269.145	0.86
269.244	-4.05
269.344	-8.56
269.443	-15.03
269.543	-19.46
269.642	-11.59
269.742	-2.66
269.841	-2.01
269.94	0.7
270.04	8.97
270.139	2.91
270.239	-0.45
270.338	4.87
270.437	1.35
270.537	0.2
270.636	-0.7
270.735	-0.78
270.835	0.61
270.934	2.83
271.033	10.69
271.133	-0.94
271.232	1.76
271.331	2.99
271.431	11.26
271.53	-11.84
271.629	1.27
271.729	-3.32
271.828	-5.78
271.927	-13.23
272.026	1.27
272.126	3.07
272.225	7.99
272.324	1.19
272.423	1.35
272.523	7.33
272.622	17.16
272.721	5.04
272.82	22.73
272.919	22.08
273.019	19.29
273.118	7.41
273.217	23.31
273.316	12.08
273.415	18.64
273.514	21.01
273.614	19.78
273.713	10.53
273.812	2.42
273.911	-6.02
274.01	-19.54
274.109	-15.69
274.208	-7.25
274.307	-2.83
274.407	5.12
274.506	11.26
274.605	1.35
274.704	-2.99
274.803	4.3
274.902	-5.69
275.001	-3.65
275.1	3.97
275.199	7.09
275.298	6.76
275.397	9.46
275.496	7.66
275.595	9.95
275.694	1.93
275.793	-2.09
275.892	3.32
275.991	7.74
276.09	7.58
276.189	15.28
276.288	15.2
276.387	8.89
276.486	-0.12
276.585	-6.92
276.684	-9.13
276.783	-10.94
276.882	-9.13
276.981	-2.99
277.08	-10.69
277.178	-14.21
277.277	-7.41
277.376	-1.43
277.475	2.5
277.574	7.33
277.673	23.72
277.772	27.89
277.871	21.09
277.969	16.92
278.068	13.8
278.167	-0.37
278.266	3.81
278.365	7.25
278.464	10.69
278.562	16.42
278.661	11.43
278.76	-2.42
278.859	-5.78
278.958	-12.41
279.056	-5.86
279.155	-1.6
279.254	3.07
279.353	13.56
279.451	17.16
279.55	14.54
279.649	26.58
279.748	30.51
279.846	17.49
279.945	23.06
280.044	16.51
280.142	11.92
280.241	1.35
280.34	2.01
280.438	-3.48
280.537	5.37
280.636	-13.64
280.734	-6.35
280.833	-6.68
280.932	-13.39
281.03	-21.34
281.129	-13.8
281.228	-5.2
281.326	-0.7
281.425	-1.35
281.523	3.56
281.622	15.03
281.721	3.15
281.819	-10.61
281.918	6.18
282.016	13.48
282.115	3.81
282.213	7
282.312	18.15
282.41	10.85
282.509	11.43
282.607	9.54
282.706	6.18
282.805	5.69
282.903	-2.83
283.002	-12.57
283.1	-6.18
283.198	-4.55
283.297	-4.55
283.395	-5.28
283.494	-0.78
283.592	-9.22
283.691	-15.77
283.789	-10.77
283.888	-7.58
283.986	-8.97
284.085	8.15
284.183	10.28
284.281	8.31
284.38	7.58
284.478	3.56
284.576	-8.48
284.675	-8.15
284.773	-13.31
284.872	-12.33
284.97	-19.29
285.068	-16.02
285.167	-9.3
285.265	-7.09
285.363	0.86
285.462	10.28
285.56	11.02
285.658	6.59
285.757	12.25
285.855	4.3
285.953	3.4
286.051	13.72
286.15	14.21
286.248	3.65
286.346	-3.89
286.444	-3.48
286.543	-20.6
286.641	-21.59
286.739	-26.58
286.837	-16.34
286.936	-11.1
287.034	-2.25
287.132	-4.3
287.23	-2.01
287.328	1.27
287.427	-8.31
287.525	-20.11
287.623	-14.29
287.721	-5.86
287.819	-14.95
287.917	-10.77
288.016	3.4
288.114	1.6
288.212	4.63
288.31	4.87
288.408	3.97
288.506	-0.2
288.604	7.33
288.702	1.93
288.8	18.23
288.899	28.22
288.997	31.33
289.095	20.19
289.193	29.04
289.291	17.74
289.389	3.81
289.487	-0.78
289.585	1.19
289.683	-11.51
289.781	-7.25
289.879	-4.71
289.977	-2.5
290.075	4.14
290.173	11.1
290.271	9.13
290.369	11.1
290.467	7.99
290.565	7.17
290.663	12.82
290.761	3.97
290.859	2.17
290.957	-0.53
291.055	0.12
291.152	-12.41
291.25	-3.56
291.348	5.2
291.446	5.53
291.544	2.25
291.642	6.35
291.74	4.22
291.838	-10.85
291.936	-4.46
292.033	-8.56
292.131	-11.18
292.229	-11.1
292.327	0.2
292.425	-11.59
292.523	-13.8
292.62	-0.37
292.718	6.84
292.816	5.45
292.914	16.83
293.012	20.52
293.109	10.2
293.207	6.43
293.305	-1.93
293.403	2.17
293.5	12.98
293.598	17.82
293.696	18.39
293.794	31.01
293.891	20.36
293.989	13.39
294.087	10.85
294.185	8.64
294.282	0.04
294.38	7.5
294.478	1.27
294.575	0.78
294.673	-1.27
294.771	5.94
294.868	2.83
294.966	11.76
295.064	10.85
295.161	10.12
295.259	6.02
295.356	2.17
295.454	-0.12
295.552	-4.46
295.649	2.58
295.747	3.97
295.844	11.26
295.942	11.51
296.04	9.95
296.137	5.86
296.235	8.56
296.332	4.46
296.43	14.46
296.527	21.01
296.625	15.2
296.722	7.25
296.82	-1.6
296.917	-11.51
297.015	-6.59
297.112	-6.35
297.21	-4.71
297.307	4.71
297.405	-3.97
297.502	-9.79
297.6	-6.27
297.697	-10.28
297.795	-16.1
297.892	-18.64
297.99	-9.95
298.087	-7.58
298.184	-1.43
298.282	-0.53
298.379	10.28
298.477	6.51
298.574	7.58
298.671	0.78
298.769	3.65
298.866	7.17
298.964	6.18
299.061	1.84
299.158	6.92
299.256	6.43
299.353	6.02
299.45	8.97
299.548	12.74
299.645	7.91
299.742	11.84
299.839	2.01
299.937	-14.13
300.034	-15.44
300.131	-12.74
300.229	-8.56
300.326	-10.2
300.423	6.27
300.52	5.78
300.618	9.79
300.715	-4.79
300.812	-3.48
300.909	-14.79
301.006	-9.95
301.104	-13.8
301.201	-0.61
301.298	3.81
301.395	10.12
301.492	-4.05
301.59	-0.94
301.687	-5.37
301.784	-8.97
301.881	-10.28
301.978	-4.46
302.075	-5.12
302.173	-7.5
302.27	-7.91
302.367	-2.58
302.464	-5.53
302.561	-5.04
302.658	-9.95
302.755	-2.91
302.852	0.45
302.949	9.3
303.046	9.22
303.143	24.04
303.24	20.6
303.338	11.1
303.435	16.42
303.532	19.78
303.629	6.84
303.726	3.89
303.823	0.45
303.92	-2.74
304.017	-5.04
304.114	-3.15
304.211	-0.78
304.308	3.4
304.405	-11.59
304.502	-8.07
304.599	-7.82
304.695	-12.49
304.792	-14.87
304.889	-15.85
304.986	-16.75
305.083	-7.91
305.18	-11.76
305.277	-15.44
305.374	-13.31
305.471	-15.52
305.568	-21.5
305.665	-10.61
305.761	-5.45
305.858	6.1
305.955	17.57
306.052	8.4
306.149	8.4
306.246	13.56
306.343	8.4
306.439	-10.2
306.536	7
306.633	8.64
306.73	5.69
306.827	10.36
306.923	12.16
307.02	-0.04
307.117	-0.61
307.214	6.27
307.31	9.54
307.407	10.69
307.504	-0.12
307.601	2.58
307.697	-3.24
307.794	-21.26
307.891	-18.39
307.988	-4.22
308.084	-13.23
308.181	-7.58
308.278	7.09
308.374	-9.3
308.471	-7.66
308.568	-1.68
308.664	-2.17
308.761	-7.25
308.858	15.36
308.954	24.29
309.051	18.96
309.147	17.9
309.244	18.96
309.341	1.35
309.437	-13.39
309.534	-8.89
309.63	-16.59
309.727	-12.33
309.824	0.12
309.92	9.13
310.017	1.84
310.113	-3.48
310.21	-13.07
310.306	-21.01
310.403	-27.98
310.499	-25.19
310.596	-19.37
310.693	-11.26
310.789	-5.69
310.886	-1.6
310.982	2.66
311.078	5.61
311.175	3.07
311.271	12.25
311.368	14.95
311.464	12
311.561	9.05
311.657	20.93
311.754	15.52
311.85	5.04
311.947	-0.37
312.043	1.43
312.139	-12.41
312.236	-15.11
312.332	-6.92
312.429	3.73
312.525	-0.37
312.621	-5.94
312.718	-3.97
312.814	2.83
312.91	-0.2
313.007	3.32
313.103	10.53
313.199	8.64
313.296	-6.02
313.392	-6.59
313.488	-8.07
313.585	-10.36
313.681	-17.57
313.777	-10.04
313.873	-19.05
313.97	-13.07
314.066	-14.95
314.162	-6.27
314.259	-8.56
314.355	8.23
314.451	2.17
314.547	11.02
314.643	15.61
314.74	10.77
314.836	8.48
314.932	11.35
315.028	3.15
315.124	-0.61
315.221	-1.02
315.317	1.52
315.413	4.38
315.509	8.48
315.605	2.58
315.701	12.82
315.798	-2.17
315.894	-6.43
315.99	-1.02
316.086	3.32
316.182	-4.71
316.278	13.48
316.374	5.45
316.47	-2.83
316.566	-3.56
316.662	6.1
316.759	-16.02
316.855	-3.15
316.951	-3.24
317.047	-9.13
317.143	-25.11
317.239	-12.49
317.335	-8.56
317.431	-3.89
317.527	6.43
317.623	23.22
317.719	21.75
317.815	9.63
317.911	10.69
318.007	5.2
318.103	-2.42
318.199	0.94
318.295	5.28
318.391	7.25
318.487	10.28
318.582	7.99
318.678	-5.04
318.774	-17.49
318.87	-14.79
318.966	-19.05
319.062	-11.67
319.158	-3.4
319.254	3.65
319.35	-3.73
319.446	7.82
319.541	2.5
319.637	-0.2
319.733	-0.45
319.829	-4.79
319.925	-10.36
320.021	-6.35
320.116	6.27
320.212	15.52
320.308	17.9
320.404	9.71
320.5	6.43
320.595	-1.76
320.691	-5.69
320.787	-5.94
320.883	-5.12
320.978	-1.02
321.074	-12.16
321.17	-12.57
321.266	-14.7
321.361	-9.22
321.457	-10.28
321.553	-3.32
321.649	-4.14
321.744	-1.43
321.84	6.35
321.936	4.38
322.031	11.18
322.127	22.16
322.223	20.44
322.318	8.64
322.414	1.84
322.51	-4.3
322.605	-6.02
322.701	-5.94
322.796	-6.76
322.892	1.52
322.988	3.89
323.083	5.69
323.179	7.99
323.274	9.05
323.37	10.69
323.466	4.87
323.561	-10.2
323.657	-15.52
323.752	-11.35
323.848	-6.51
323.943	0.94
324.039	3.32
324.134	12
324.23	12.9
324.325	13.72
324.421	17.16
324.516	26.83
324.612	28.06
324.707	32.32
324.803	22.65
324.898	17.9
324.994	12.66
325.089	17.16
325.185	15.11
325.28	18.15
325.375	16.42
325.471	5.94
325.566	-6.59
325.662	-21.01
325.757	-22.73
325.853	-22.9
325.948	-18.31
326.043	-15.11
326.139	-8.72
326.234	-0.78
326.329	-1.35
326.425	3.65
326.52	1.6
326.615	8.07
326.711	3.07
326.806	7.91
326.901	8.64
326.997	12.49
327.092	4.79
327.187	5.28
327.283	2.5
327.378	10.44
327.473	12.57
327.568	21.5
327.664	14.54
327.759	20.52
327.854	10.28
327.949	1.52
328.045	3.89
328.14	3.48
328.235	-3.73
328.33	-3.24
328.425	10.61
328.521	3.07
328.616	5.78
328.711	7.33
328.806	3.97
328.901	-2.5
328.996	-2.01
329.092	-7.5
329.187	1.27
329.282	7.09
329.377	10.77
329.472	3.32
329.567	9.95
329.662	-3.73
329.757	-8.23
329.853	-12.66
329.948	-8.07
330.043	-6.43
330.138	0.86
330.233	7.09
330.328	10.12
330.423	18.8
330.518	13.89
330.613	10.53
330.708	11.76
330.803	2.83
330.898	-0.61
330.993	7.58
331.088	17.16
331.183	22.08
331.278	26.25
331.373	18.06
331.468	18.88
331.563	12.25
331.658	3.81
331.753	7
331.848	8.07
331.943	6.59
332.038	5.28
332.133	8.72
332.227	8.15
332.322	12.41
332.417	5.12
332.512	16.18
332.607	15.61
332.702	2.99
332.797	-0.12
